# time kineticEnergy potentialEnergy energy temperature
0 104.686 -122.695 -18.0096 1.04686 22.3435
0.005 102.354 -120.502 -18.1479 1.02354 21.9203
0.01 95.4568 -113.562 -18.1056 0.954568 22.3377
0.015 84.6357 -102.661 -18.0251 0.846357 22.9943
0.02 71.3271 -89.2261 -17.8991 0.713271 23.8022
0.025 57.6448 -75.3848 -17.74 0.576448 24.6441
0.03 46.105 -63.6996 -17.5946 0.46105 25.3463
0.035 38.9215 -56.4457 -17.5242 0.389215 25.7863
0.04 37.1605 -54.7213 -17.5608 0.371605 25.8937
0.045 40.3182 -57.9959 -17.6776 0.403182 25.7093
0.05 46.6384 -64.4576 -17.8193 0.466384 25.3377
0.055 53.9201 -71.8559 -17.9358 0.539201 24.8831
0.06 60.242 -78.25 -18.008 0.60242 24.5043
0.065 64.345 -82.3766 -18.0316 0.64345 24.2454
0.07 65.7452 -83.7568 -18.0116 0.657452 24.1315
0.075 64.6617 -82.6235 -17.9617 0.646617 24.1782
0.08 61.8556 -79.7477 -17.8921 0.618556 24.3525
0.085 58.4064 -76.2316 -17.8252 0.584064 24.5682
0.09 55.4179 -73.1927 -17.7748 0.554179 24.7489
0.095 53.6978 -71.4546 -17.7568 0.536978 24.8832
0.1 53.5709 -71.3386 -17.7677 0.535709 24.9018
0.105 54.8875 -72.6843 -17.7968 0.548875 24.8286
0.11 57.2177 -75.049 -17.8313 0.572177 24.6829
0.115 60.0377 -77.898 -17.8603 0.600377 24.5118
0.12 62.839 -80.7217 -17.8827 0.62839 24.3293
0.125 65.2001 -83.1005 -17.9005 0.652001 24.1935
0.13 66.8331 -84.7483 -17.9152 0.668331 24.0834
0.135 67.6045 -85.5157 -17.9112 0.676045 24.0258
0.14 67.5392 -85.4382 -17.899 0.675392 24.0301
0.145 66.8182 -84.7033 -17.8851 0.668182 24.0692
0.15 65.6947 -83.5638 -17.8691 0.656947 24.1232
0.155 64.4282 -82.2816 -17.8534 0.644282 24.2144
0.16 63.263 -81.1053 -17.8423 0.63263 24.2892
0.165 62.4535 -80.2778 -17.8243 0.624535 24.3325
0.17 62.2692 -80.0788 -17.8095 0.622692 24.3433
0.175 62.9749 -80.7707 -17.7957 0.629749 24.3064
0.18 64.7704 -82.5628 -17.7924 0.647704 24.1926
0.185 67.7054 -85.5014 -17.796 0.677054 24.0216
0.19 71.6601 -89.4731 -17.813 0.716601 23.7671
0.195 76.3702 -94.2046 -17.8344 0.763702 23.5054
0.2 81.4804 -99.3372 -17.8568 0.814804 23.2249
0.205 86.6256 -104.494 -17.8687 0.866256 22.8936
0.21 91.4749 -109.365 -17.8904 0.914749 22.5885
0.215 95.7699 -113.666 -17.8962 0.957699 22.3104
0.22 99.4116 -117.296 -17.8848 0.994116 22.0772
0.225 102.52 -120.382 -17.8618 1.0252 21.9083
0.23 105.41 -123.24 -17.8297 1.0541 21.7322
0.235 108.504 -126.312 -17.8081 1.08504 21.54
0.24 112.168 -129.966 -17.7979 1.12168 21.315
0.245 116.48 -134.292 -17.8115 1.1648 21.0474
0.25 121.191 -139.03 -17.8393 1.21191 20.7804
0.255 125.85 -143.723 -17.8729 1.2585 20.5176
0.26 129.99 -147.886 -17.8961 1.2999 20.2561
0.265 133.218 -151.134 -17.916 1.33218 20.0439
0.27 135.23 -153.169 -17.9393 1.3523 19.9345
0.275 135.821 -153.768 -17.946 1.35821 19.9129
0.28 134.977 -152.919 -17.9415 1.34977 19.9739
0.285 133.028 -150.92 -17.8923 1.33028 20.1097
0.29 130.795 -148.617 -17.8212 1.30795 20.2024
0.295 129.39 -147.175 -17.7842 1.2939 20.2846
0.3 129.455 -147.267 -17.8127 1.29455 20.2713
0.305 130.625 -148.519 -17.894 1.30625 20.1885
0.31 131.835 -149.8 -17.965 1.31835 20.1004
0.315 132.034 -150.035 -18.0008 1.32034 20.0752
0.32 130.639 -148.658 -18.0198 1.30639 20.1628
0.325 127.512 -145.523 -18.0114 1.27512 20.3652
0.33 122.867 -140.845 -17.9785 1.22867 20.6437
0.335 117.241 -135.178 -17.9375 1.17241 20.9913
0.34 111.405 -129.292 -17.8864 1.11405 21.3788
0.345 106.2 -124.037 -17.8364 1.062 21.6962
0.35 102.363 -120.174 -17.8103 1.02363 21.9257
0.355 100.352 -118.173 -17.8216 1.00352 22.0669
0.36 100.154 -118.01 -17.8558 1.00154 22.0728
0.365 101.253 -119.164 -17.9107 1.01253 22.033
0.37 102.825 -120.795 -17.9698 1.02825 21.9512
0.375 104.091 -122.094 -18.0026 1.04091 21.89
0.38 104.689 -122.679 -17.9902 1.04689 21.8537
0.385 104.828 -122.785 -17.9575 1.04828 21.8204
0.39 104.965 -122.918 -17.9531 1.04965 21.806
0.395 105.224 -123.202 -17.9774 1.05224 21.7937
0.4 105.247 -123.266 -18.0186 1.05247 21.792
0.405 104.522 -122.562 -18.0396 1.04522 21.8505
0.41 102.699 -120.737 -18.0376 1.02699 21.9343
0.415 99.7558 -117.767 -18.0112 0.997558 22.0819
0.42 96.1224 -114.08 -17.9575 0.961224 22.2686
0.425 92.659 -110.552 -17.8933 0.92659 22.4724
0.43 90.3878 -108.234 -17.8467 0.903878 22.585
0.435 90.0227 -107.869 -17.8465 0.900227 22.6128
0.44 91.6693 -109.547 -17.8776 0.916693 22.5302
0.445 94.8446 -112.78 -17.9357 0.948446 22.3337
0.45 98.5627 -116.577 -18.0148 0.985627 22.1226
0.455 101.581 -119.656 -18.0742 1.01581 21.9335
0.46 102.911 -121.001 -18.0895 1.02911 21.8628
0.465 102.274 -120.326 -18.0516 1.02274 21.9112
0.47 100.167 -118.152 -17.9846 1.00167 22.0489
0.475 97.538 -115.467 -17.9294 0.97538 22.2015
0.48 95.305 -113.194 -17.8895 0.95305 22.3646
0.485 94.0618 -111.935 -17.8731 0.940618 22.4368
0.49 93.9894 -111.876 -17.8867 0.939894 22.4605
0.495 94.8737 -112.794 -17.92 0.948737 22.4038
0.5 96.2512 -114.204 -17.9527 0.962512 22.3111
0.505 97.6135 -115.597 -17.9835 0.976135 22.2555
0.51 98.5333 -116.528 -17.9946 0.985333 22.1979
0.515 98.7909 -116.779 -17.9882 0.987909 22.1948
0.52 98.4535 -116.425 -17.9711 0.984535 22.2084
0.525 97.8257 -115.784 -17.9579 0.978257 22.2644
0.53 97.249 -115.202 -17.9526 0.97249 22.2775
0.535 96.9301 -114.877 -17.9465 0.969301 22.2957
0.54 97.0619 -114.989 -17.9268 0.970619 22.2767
0.545 97.9105 -115.835 -17.9243 0.979105 22.2246
0.55 99.5706 -117.513 -17.9423 0.995706 22.137
0.555 101.723 -119.71 -17.9869 1.01723 21.9879
0.56 103.8 -121.815 -18.0148 1.038 21.8604
0.565 105.39 -123.403 -18.0132 1.0539 21.7506
0.57 106.481 -124.472 -17.9913 1.06481 21.6647
0.575 107.374 -125.331 -17.9571 1.07374 21.6112
0.58 108.49 -126.428 -17.9375 1.0849 21.5257
0.585 110.202 -128.125 -17.9225 1.10202 21.4282
0.59 112.676 -130.599 -17.9229 1.12676 21.2757
0.595 115.826 -133.767 -17.9411 1.15826 21.0831
0.6 119.375 -137.341 -17.9656 1.19375 20.8555
0.605 122.964 -140.956 -17.9921 1.22964 20.6538
0.61 126.195 -144.207 -18.0125 1.26195 20.4425
0.615 128.656 -146.681 -18.0255 1.28656 20.2944
0.62 130.053 -148.078 -18.0245 1.30053 20.2345
0.625 130.316 -148.341 -18.0249 1.30316 20.2221
0.63 129.557 -147.57 -18.014 1.29557 20.2796
0.635 127.936 -145.946 -18.0105 1.27936 20.4029
0.64 125.574 -143.586 -18.0121 1.25574 20.5354
0.645 122.501 -140.523 -18.0223 1.22501 20.7606
0.65 118.764 -136.783 -18.0193 1.18764 20.9871
0.655 114.566 -132.565 -17.9995 1.14566 21.2612
0.66 110.326 -128.283 -17.9571 1.10326 21.5126
0.665 106.719 -124.626 -17.9071 1.06719 21.755
0.67 104.501 -122.393 -17.892 1.04501 21.8726
0.675 104.024 -121.946 -17.9223 1.04024 21.8805
0.68 104.878 -122.863 -17.9852 1.04878 21.8092
0.685 106.16 -124.184 -18.0245 1.0616 21.7143
0.69 107.117 -125.14 -18.023 1.07117 21.6512
0.695 107.49 -125.498 -18.0076 1.0749 21.6334
0.7 107.431 -125.406 -17.9756 1.07431 21.6374
0.705 107.245 -125.204 -17.9586 1.07245 21.6505
0.71 107.182 -125.126 -17.9441 1.07182 21.6752
0.715 107.385 -125.329 -17.9433 1.07385 21.6954
0.72 107.878 -125.824 -17.9459 1.07878 21.6925
0.725 108.599 -126.545 -17.9462 1.08599 21.681
0.73 109.487 -127.431 -17.9439 1.09487 21.6476
0.735 110.555 -128.492 -17.937 1.10555 21.592
0.74 111.834 -129.782 -17.9485 1.11834 21.5393
0.745 113.211 -131.172 -17.9607 1.13211 21.4319
0.75 114.389 -132.376 -17.9864 1.14389 21.3792
0.755 114.998 -133.005 -18.007 1.14998 21.3499
0.76 114.783 -132.787 -18.0038 1.14783 21.3588
0.765 113.758 -131.74 -17.9825 1.13758 21.4264
0.77 112.189 -130.153 -17.9637 1.12189 21.5255
0.775 110.475 -128.405 -17.9306 1.10475 21.635
0.78 109.016 -126.925 -17.9094 1.09016 21.7243
0.785 108.065 -125.978 -17.9125 1.08065 21.772
0.79 107.621 -125.547 -17.9257 1.07621 21.7958
0.795 107.482 -125.437 -17.9541 1.07482 21.7837
0.8 107.409 -125.361 -17.9516 1.07409 21.7789
0.805 107.357 -125.292 -17.9342 1.07357 21.7928
0.81 107.552 -125.464 -17.9124 1.07552 21.763
0.815 108.262 -126.167 -17.905 1.08262 21.7221
0.82 109.542 -127.469 -17.9266 1.09542 21.6442
0.825 111.186 -129.133 -17.9473 1.11186 21.5203
0.83 112.88 -130.848 -17.9678 1.1288 21.3959
0.835 114.323 -132.307 -17.9845 1.14323 21.3052
0.84 115.23 -133.232 -18.0022 1.1523 21.2435
0.845 115.376 -133.386 -18.0101 1.15376 21.2351
0.85 114.702 -132.708 -18.0063 1.14702 21.2732
0.855 113.349 -131.338 -17.9887 1.13349 21.3576
0.86 111.592 -129.562 -17.9701 1.11592 21.4668
0.865 109.721 -127.68 -17.9595 1.09721 21.558
0.87 107.938 -125.902 -17.9635 1.07938 21.6468
0.875 106.306 -124.277 -17.9704 1.06306 21.7245
0.88 104.771 -122.749 -17.9781 1.04771 21.7993
0.885 103.323 -121.292 -17.9685 1.03323 21.8621
0.89 102.158 -120.107 -17.9488 1.02158 21.9562
0.895 101.591 -119.536 -17.9451 1.01591 21.9968
0.9 101.715 -119.686 -17.9715 1.01715 21.9989
0.905 102.196 -120.199 -18.003 1.02196 21.9866
0.91 102.607 -120.614 -18.0069 1.02607 21.9624
0.915 102.834 -120.823 -17.9882 1.02834 21.9686
0.92 103.121 -121.086 -17.9648 1.03121 21.9731
0.925 103.849 -121.79 -17.9414 1.03849 21.9586
0.93 105.275 -123.222 -17.9471 1.05275 21.8862
0.935 107.409 -125.372 -17.963 1.07409 21.7646
0.94 110.012 -128.01 -17.9986 1.10012 21.6138
0.945 112.626 -130.662 -18.0369 1.12626 21.4465
0.95 114.652 -132.721 -18.0683 1.14652 21.3209
0.955 115.536 -133.621 -18.0851 1.15536 21.2856
0.96 115.009 -133.076 -18.067 1.15009 21.3292
0.965 113.3 -131.326 -18.0257 1.133 21.4094
0.97 111.126 -129.084 -17.9577 1.11126 21.4958
0.975 109.449 -127.349 -17.8999 1.09449 21.5788
0.98 109.161 -127.027 -17.8655 1.09161 21.583
0.985 110.842 -128.708 -17.866 1.10842 21.4581
0.99 114.518 -132.415 -17.8962 1.14518 21.2518
0.995 119.603 -137.554 -17.9508 1.19603 20.9546
